Freq (hertz)	Ra (norm)	Xa (norm)	Za (norm)	SPL (dB)	Ze (ohms)	Xd (mm) 	WPhase (deg)	UPhase (deg)	CPhase (deg)	Delay (msec)	Efficiency (%)	Ein (volts)	Pin (watts)	Iin (amps)	ZePhase (deg)

10.000000	0.000044	0.066469	0.066469	57.597827	6.196819	0.794362	165.438295	165.438295	165.438295	4.056361	0.000278	2.830000	1.256358	0.456686	13.566974
10.144045	0.000045	0.067435	0.067435	57.848724	6.202699	0.794150	165.227934	165.227934	165.227934	4.056867	0.000295	2.830000	1.254129	0.456253	13.762005
10.290166	0.000047	0.068415	0.068415	58.099692	6.208759	0.793932	165.014515	165.014515	165.014515	4.057387	0.000313	2.830000	1.251838	0.455808	13.959826
10.438391	0.000048	0.069410	0.069410	58.350733	6.215006	0.793708	164.797995	164.797995	164.797995	4.057924	0.000332	2.830000	1.249483	0.455350	14.160479
10.588751	0.000050	0.070419	0.070419	58.601851	6.221446	0.793477	164.578326	164.578326	164.578326	4.058476	0.000352	2.830000	1.247063	0.454878	14.364001
10.741277	0.000051	0.071444	0.071444	58.853046	6.228085	0.793240	164.355462	164.355462	164.355462	4.059045	0.000374	2.830000	1.244576	0.454393	14.570434
10.896000	0.000053	0.072483	0.072483	59.104322	6.234930	0.792996	164.129356	164.129356	164.129356	4.059632	0.000397	2.830000	1.242021	0.453894	14.779818
11.052951	0.000054	0.073538	0.073538	59.355681	6.241987	0.792744	163.899959	163.899959	163.899959	4.060236	0.000422	2.830000	1.239395	0.453381	14.992196
11.212164	0.000056	0.074609	0.074609	59.607125	6.249263	0.792486	163.667223	163.667223	163.667223	4.060858	0.000448	2.830000	1.236696	0.452853	15.207608
11.373670	0.000057	0.075696	0.075696	59.858657	6.256766	0.792220	163.431097	163.431097	163.431097	4.061500	0.000476	2.830000	1.233924	0.452310	15.426098
11.537502	0.000059	0.076799	0.076799	60.110279	6.264504	0.791946	163.191532	163.191532	163.191532	4.062160	0.000505	2.830000	1.231075	0.451752	15.647708
11.703695	0.000061	0.077918	0.077918	60.361993	6.272483	0.791665	162.948476	162.948476	162.948476	4.062841	0.000537	2.830000	1.228149	0.451177	15.872482
11.872281	0.000063	0.079054	0.079054	60.613804	6.280713	0.791375	162.701877	162.701877	162.701877	4.063543	0.000570	2.830000	1.225142	0.450586	16.100465
12.043295	0.000065	0.080207	0.080207	60.865714	6.289201	0.791077	162.451681	162.451681	162.451681	4.064266	0.000606	2.830000	1.222053	0.449978	16.331701
12.216773	0.000067	0.081377	0.081377	61.117724	6.297957	0.790771	162.197836	162.197836	162.197836	4.065011	0.000643	2.830000	1.218880	0.449352	16.566235
12.392750	0.000069	0.082565	0.082565	61.369840	6.306989	0.790455	161.940287	161.940287	161.940287	4.065778	0.000684	2.830000	1.215621	0.448709	16.804114
12.571262	0.000071	0.083770	0.083770	61.622062	6.316307	0.790131	161.678977	161.678977	161.678977	4.066570	0.000727	2.830000	1.212274	0.448047	17.045383
12.752345	0.000073	0.084994	0.084994	61.874396	6.325921	0.789797	161.413851	161.413851	161.413851	4.067385	0.000772	2.830000	1.208835	0.447366	17.290090
12.936037	0.000075	0.086236	0.086236	62.126844	6.335840	0.789453	161.144852	161.144852	161.144852	4.068226	0.000821	2.830000	1.205304	0.446665	17.538283
13.122374	0.000078	0.087497	0.087497	62.379409	6.346076	0.789100	160.871920	160.871920	160.871920	4.069092	0.000873	2.830000	1.201677	0.445945	17.790010
13.311396	0.000080	0.088776	0.088776	62.632095	6.356640	0.788736	160.594997	160.594997	160.594997	4.069985	0.000928	2.830000	1.197953	0.445204	18.045319
13.503140	0.000083	0.090075	0.090075	62.884906	6.367542	0.788362	160.314023	160.314023	160.314023	4.070906	0.000987	2.830000	1.194129	0.444442	18.304260
13.697647	0.000085	0.091394	0.091394	63.137845	6.378795	0.787977	160.028935	160.028935	160.028935	4.071855	0.001049	2.830000	1.190203	0.443657	18.566882
13.894955	0.000088	0.092732	0.092732	63.390915	6.390411	0.787581	159.739673	159.739673	159.739673	4.072834	0.001116	2.830000	1.186171	0.442851	18.833238
14.095105	0.000090	0.094091	0.094091	63.644122	6.402403	0.787173	159.446172	159.446172	159.446172	4.073843	0.001187	2.830000	1.182032	0.442022	19.103377
14.298139	0.000093	0.095470	0.095470	63.897469	6.414785	0.786754	159.148369	159.148369	159.148369	4.074883	0.001263	2.830000	1.177783	0.441168	19.377351
14.504097	0.000096	0.096871	0.096871	64.150961	6.427569	0.786323	158.846198	158.846198	158.846198	4.075955	0.001344	2.830000	1.173422	0.440291	19.655213
14.713021	0.000099	0.098292	0.098292	64.404600	6.440772	0.785879	158.539592	158.539592	158.539592	4.077061	0.001430	2.830000	1.168945	0.439388	19.937016
14.924955	0.000102	0.099736	0.099736	64.658393	6.454408	0.785422	158.228484	158.228484	158.228484	4.078202	0.001522	2.830000	1.164351	0.438460	20.222813
15.139942	0.000106	0.101201	0.101201	64.912343	6.468493	0.784953	157.912805	157.912805	157.912805	4.079378	0.001620	2.830000	1.159636	0.437505	20.512658
15.358026	0.000109	0.102689	0.102689	65.166456	6.483043	0.784469	157.592485	157.592485	157.592485	4.080591	0.001725	2.830000	1.154797	0.436523	20.806606
15.579251	0.000112	0.104199	0.104199	65.420735	6.498075	0.783972	157.267453	157.267453	157.267453	4.081843	0.001837	2.830000	1.149832	0.435514	21.104712
15.803663	0.000116	0.105733	0.105733	65.675187	6.513608	0.783461	156.937636	156.937636	156.937636	4.083134	0.001957	2.830000	1.144738	0.434475	21.407033
16.031307	0.000119	0.107290	0.107290	65.929816	6.529661	0.782935	156.602961	156.602961	156.602961	4.084465	0.002084	2.830000	1.139512	0.433407	21.713623
16.262231	0.000123	0.108871	0.108871	66.184627	6.546252	0.782393	156.263352	156.263352	156.263352	4.085839	0.002221	2.830000	1.134151	0.432308	22.024542
16.496481	0.000127	0.110477	0.110477	66.439627	6.563402	0.781836	155.918734	155.918734	155.918734	4.087256	0.002366	2.830000	1.128652	0.431179	22.339845
16.734105	0.000131	0.112107	0.112107	66.694820	6.581133	0.781263	155.569029	155.569029	155.569029	4.088719	0.002522	2.830000	1.123012	0.430017	22.659590
16.975152	0.000135	0.113762	0.113763	66.950214	6.599467	0.780674	155.214157	155.214157	155.214157	4.090228	0.002689	2.830000	1.117229	0.428823	22.983838
17.219671	0.000140	0.115444	0.115444	67.205812	6.618427	0.780068	154.854039	154.854039	154.854039	4.091785	0.002867	2.830000	1.111298	0.427594	23.312645
17.467712	0.000144	0.117151	0.117151	67.461623	6.638039	0.779444	154.488592	154.488592	154.488592	4.093392	0.003058	2.830000	1.105218	0.426331	23.646073
17.719326	0.000149	0.118885	0.118885	67.717651	6.658327	0.778802	154.117734	154.117734	154.117734	4.095051	0.003262	2.830000	1.098984	0.425032	23.984180
17.974565	0.000154	0.120646	0.120646	67.973905	6.679318	0.778142	153.741378	153.741378	153.741378	4.096763	0.003480	2.830000	1.092594	0.423696	24.327029
18.233480	0.000159	0.122435	0.122435	68.230390	6.701041	0.777463	153.359439	153.359439	153.359439	4.098530	0.003714	2.830000	1.086045	0.422322	24.674678
18.496125	0.000164	0.124252	0.124252	68.487114	6.723525	0.776765	152.971828	152.971828	152.971828	4.100355	0.003965	2.830000	1.079333	0.420910	25.027190
18.762553	0.000169	0.126097	0.126097	68.744083	6.746801	0.776046	152.578456	152.578456	152.578456	4.102239	0.004234	2.830000	1.072455	0.419458	25.384626
19.032818	0.000175	0.127972	0.127972	69.001306	6.770902	0.775307	152.179232	152.179232	152.179232	4.104185	0.004522	2.830000	1.065409	0.417965	25.747048
19.306977	0.000181	0.129876	0.129876	69.258790	6.795862	0.774546	151.774062	151.774062	151.774062	4.106194	0.004831	2.830000	1.058191	0.416430	26.114519
19.585085	0.000187	0.131810	0.131810	69.516543	6.821717	0.773764	151.362851	151.362851	151.362851	4.108269	0.005162	2.830000	1.050798	0.414852	26.487101
19.867199	0.000193	0.133775	0.133776	69.774574	6.848505	0.772959	150.945502	150.945502	150.945502	4.110412	0.005518	2.830000	1.043226	0.413229	26.864857
20.153377	0.000199	0.135772	0.135772	70.032889	6.876266	0.772131	150.521918	150.521918	150.521918	4.112626	0.005900	2.830000	1.035473	0.411561	27.247849
20.443677	0.000206	0.137800	0.137801	70.291500	6.905041	0.771280	150.091997	150.091997	150.091997	4.114914	0.006310	2.830000	1.027535	0.409846	27.636142
20.738158	0.000213	0.139861	0.139862	70.550414	6.934875	0.770404	149.655636	149.655636	149.655636	4.117277	0.006751	2.830000	1.019410	0.408082	28.029797
21.036882	0.000220	0.141956	0.141956	70.809640	6.965815	0.769503	149.212731	149.212731	149.212731	4.119719	0.007225	2.830000	1.011094	0.406270	28.428878
21.339908	0.000227	0.144084	0.144084	71.069189	6.997909	0.768576	148.763176	148.763176	148.763176	4.122243	0.007736	2.830000	1.002585	0.404407	28.833448
21.647300	0.000235	0.146246	0.146246	71.329071	7.031210	0.767623	148.306861	148.306861	148.306861	4.124852	0.008285	2.830000	0.993879	0.402491	29.243569
21.959119	0.000243	0.148444	0.148444	71.589294	7.065772	0.766642	147.843675	147.843675	147.843675	4.127549	0.008876	2.830000	0.984974	0.400522	29.659304
22.275430	0.000251	0.150677	0.150677	71.849871	7.101655	0.765633	147.373505	147.373505	147.373505	4.130337	0.009512	2.830000	0.975866	0.398499	30.080716
22.596297	0.000260	0.152947	0.152948	72.110812	7.138918	0.764595	146.896235	146.896235	146.896235	4.133220	0.010199	2.830000	0.966553	0.396419	30.507865
22.921786	0.000269	0.155255	0.155255	72.372128	7.177628	0.763528	146.411747	146.411747	146.411747	4.136201	0.010939	2.830000	0.957033	0.394281	30.940813
23.251963	0.000278	0.157600	0.157600	72.633831	7.217853	0.762430	145.919919	145.919919	145.919919	4.139285	0.011738	2.830000	0.947302	0.392083	31.379619
23.586897	0.000288	0.159985	0.159985	72.895933	7.259667	0.761301	145.420629	145.420629	145.420629	4.142474	0.012600	2.830000	0.937359	0.389825	31.824344
23.926655	0.000298	0.162409	0.162409	73.158447	7.303147	0.760140	144.913750	144.913750	144.913750	4.145774	0.013532	2.830000	0.927200	0.387504	32.275045
24.271307	0.000308	0.164873	0.164874	73.421384	7.348377	0.758945	144.399153	144.399153	144.399153	4.149188	0.014539	2.830000	0.916825	0.385119	32.731779
24.620924	0.000319	0.167379	0.167379	73.684759	7.395444	0.757716	143.876706	143.876706	143.876706	4.152722	0.015629	2.830000	0.906230	0.382668	33.194601
24.975577	0.000331	0.169927	0.169928	73.948585	7.444442	0.756453	143.346274	143.346274	143.346274	4.156379	0.016808	2.830000	0.895415	0.380149	33.663564
25.335338	0.000343	0.172519	0.172519	74.212876	7.495471	0.755153	142.807720	142.807720	142.807720	4.160165	0.018086	2.830000	0.884376	0.377561	34.138721
25.700282	0.000355	0.175154	0.175154	74.477648	7.548638	0.753816	142.260903	142.260903	142.260903	4.164085	0.019471	2.830000	0.873114	0.374902	34.620120
26.070482	0.000368	0.177835	0.177835	74.742914	7.604057	0.752441	141.705677	141.705677	141.705677	4.168144	0.020973	2.830000	0.861626	0.372170	35.107808
26.446016	0.000381	0.180561	0.180561	75.008690	7.661849	0.751026	141.141894	141.141894	141.141894	4.172348	0.022604	2.830000	0.849912	0.369363	35.601829
26.826958	0.000395	0.183335	0.183335	75.274994	7.722145	0.749572	140.569404	140.569404	140.569404	4.176704	0.024376	2.830000	0.837970	0.366478	36.102221
27.213388	0.000410	0.186156	0.186157	75.541841	7.785085	0.748076	139.988050	139.988050	139.988050	4.181216	0.026303	2.830000	0.825801	0.363516	36.609020
27.605384	0.000425	0.189028	0.189028	75.809248	7.850820	0.746537	139.397674	139.397674	139.397674	4.185892	0.028400	2.830000	0.813405	0.360472	37.122260
28.003026	0.000441	0.191949	0.191950	76.077234	7.919510	0.744954	138.798113	138.798113	138.798113	4.190739	0.030683	2.830000	0.800780	0.357345	37.641965
28.406397	0.000457	0.194922	0.194923	76.345817	7.991329	0.743327	138.189198	138.189198	138.189198	4.195764	0.033173	2.830000	0.787929	0.354134	38.168156
28.815578	0.000475	0.197948	0.197949	76.615016	8.066465	0.741653	137.570759	137.570759	137.570759	4.200974	0.035890	2.830000	0.774852	0.350835	38.700847
29.230652	0.000493	0.201028	0.201029	76.884851	8.145120	0.739931	136.942618	136.942618	136.942618	4.206378	0.038858	2.830000	0.761550	0.347447	39.240046
29.651706	0.000512	0.204163	0.204164	77.155341	8.227511	0.738160	136.304595	136.304595	136.304595	4.211983	0.042103	2.830000	0.748025	0.343968	39.785750
30.078825	0.000532	0.207356	0.207356	77.426510	8.313875	0.736339	135.656503	135.656503	135.656503	4.217799	0.045655	2.830000	0.734279	0.340395	40.337948
30.512097	0.000552	0.210606	0.210607	77.698377	8.404469	0.734466	134.998152	134.998152	134.998152	4.223835	0.049546	2.830000	0.720315	0.336726	40.896618
30.951609	0.000574	0.213916	0.213917	77.970966	8.499569	0.732540	134.329344	134.329344	134.329344	4.230101	0.053815	2.830000	0.706136	0.332958	41.461728
31.397452	0.000597	0.217287	0.217288	78.244300	8.599480	0.730559	133.649878	133.649878	133.649878	4.236606	0.058503	2.830000	0.691747	0.329090	42.033227
31.849718	0.000621	0.220721	0.220722	78.518403	8.704531	0.728522	132.959544	132.959544	132.959544	4.243362	0.063657	2.830000	0.677151	0.325118	42.611055
32.308498	0.000646	0.224220	0.224221	78.793301	8.815081	0.726427	132.258130	132.258130	132.258130	4.250381	0.069332	2.830000	0.662354	0.321041	43.195130
32.773887	0.000672	0.227784	0.227785	79.069019	8.931525	0.724272	131.545413	131.545413	131.545413	4.257673	0.075587	2.830000	0.647361	0.316855	43.785350
33.245979	0.000700	0.231417	0.231418	79.345584	9.054294	0.722056	130.821166	130.821166	130.821166	4.265252	0.082492	2.830000	0.632180	0.312559	44.381593
33.724872	0.000729	0.235119	0.235121	79.623025	9.183863	0.719777	130.085155	130.085155	130.085155	4.273132	0.090124	2.830000	0.616816	0.308149	44.983707
34.210663	0.000759	0.238894	0.238895	79.901369	9.320753	0.717433	129.337136	129.337136	129.337136	4.281326	0.098572	2.830000	0.601280	0.303624	45.591514
34.703452	0.000791	0.242742	0.242743	80.180647	9.465541	0.715022	128.576860	128.576860	128.576860	4.289849	0.107938	2.830000	0.585579	0.298979	46.204798
35.203338	0.000825	0.246666	0.246667	80.460890	9.618864	0.712543	127.804067	127.804067	127.804067	4.298718	0.118337	2.830000	0.569724	0.294214	46.823307
35.710426	0.000861	0.250668	0.250669	80.742129	9.781429	0.709993	127.018491	127.018491	127.018491	4.307949	0.129901	2.830000	0.553725	0.289324	47.446741
36.224818	0.000898	0.254750	0.254752	81.024398	9.954022	0.707371	126.219855	126.219855	126.219855	4.317559	0.142784	2.830000	0.537595	0.284307	48.074750
36.746619	0.000938	0.258916	0.258918	81.307731	10.137521	0.704674	125.407872	125.407872	125.407872	4.327568	0.157160	2.830000	0.521346	0.279161	48.706922
37.275937	0.000979	0.263167	0.263169	81.592164	10.332907	0.701900	124.582246	124.582246	124.582246	4.337995	0.173231	2.830000	0.504994	0.273882	49.342776
37.812880	0.001023	0.267506	0.267508	81.877734	10.541280	0.699047	123.742670	123.742670	123.742670	4.348861	0.191230	2.830000	0.488553	0.268468	49.981749
38.357556	0.001070	0.271936	0.271939	82.164479	10.763880	0.696113	122.888824	122.888824	122.888824	4.360190	0.211428	2.830000	0.472041	0.262916	50.623182
38.910079	0.001119	0.276460	0.276463	82.452439	11.002108	0.693095	122.020378	122.020378	122.020378	4.372004	0.234139	2.830000	0.455475	0.257223	51.266305
39.470560	0.001171	0.281082	0.281084	82.741654	11.257554	0.689991	121.136987	121.136987	121.136987	4.384329	0.259728	2.830000	0.438875	0.251387	51.910215
40.039115	0.001227	0.285803	0.285806	83.032167	11.532028	0.686798	120.238294	120.238294	120.238294	4.397191	0.288622	2.830000	0.422262	0.245404	52.553853
40.615860	0.001285	0.290628	0.290631	83.324023	11.827598	0.683514	119.323927	119.323927	119.323927	4.410620	0.321318	2.830000	0.405659	0.239271	53.195976
41.200912	0.001347	0.295560	0.295563	83.617268	12.146644	0.680135	118.393497	118.393497	118.393497	4.424645	0.358402	2.830000	0.389090	0.232986	53.835117
41.794392	0.001413	0.300604	0.300607	83.911948	12.491910	0.676660	117.446603	117.446603	117.446603	4.439299	0.400560	2.830000	0.372582	0.226547	54.469545
42.396421	0.001484	0.305762	0.305766	84.208112	12.866582	0.673085	116.482821	116.482821	116.482821	4.454617	0.448599	2.830000	0.356161	0.219950	55.097204
43.007121	0.001558	0.311040	0.311044	84.505813	13.274376	0.669407	115.501712	115.501712	115.501712	4.470634	0.503474	2.830000	0.339859	0.213193	55.715648
43.626619	0.001638	0.316442	0.316447	84.805102	13.719654	0.665623	114.502817	114.502817	114.502817	4.487391	0.566309	2.830000	0.323706	0.206273	56.321951
44.255040	0.001723	0.321973	0.321978	85.106035	14.207570	0.661730	113.485655	113.485655	113.485655	4.504929	0.638436	2.830000	0.307737	0.199190	56.912593
44.892513	0.001814	0.327638	0.327643	85.408668	14.744250	0.657725	112.449722	112.449722	112.449722	4.523294	0.721433	2.830000	0.291988	0.191939	57.483317
45.539168	0.001911	0.333442	0.333447	85.713060	15.337036	0.653603	111.394491	111.394491	111.394491	4.542531	0.817166	2.830000	0.276497	0.184521	58.028941
46.195138	0.002014	0.339390	0.339396	86.019271	15.994794	0.649361	110.319408	110.319408	110.319408	4.562694	0.927846	2.830000	0.261304	0.176933	58.543107
46.860558	0.002125	0.345490	0.345497	86.327365	16.728323	0.644996	109.223893	109.223893	109.223893	4.583837	1.056082	2.830000	0.246453	0.169174	59.017952
47.535562	0.002244	0.351747	0.351754	86.637408	17.550901	0.640503	108.107334	108.107334	108.107334	4.606018	1.204949	2.830000	0.231989	0.161245	59.443660
48.220290	0.002372	0.358169	0.358177	86.949466	18.479020	0.635878	106.969090	106.969090	106.969090	4.629300	1.378047	2.830000	0.217960	0.153147	59.807856
48.914880	0.002510	0.364763	0.364771	87.263609	19.533388	0.631117	105.808483	105.808483	105.808483	4.653751	1.579561	2.830000	0.204418	0.144880	60.094748
49.619476	0.002657	0.371536	0.371546	87.579911	20.740315	0.626216	104.624799	104.624799	104.624799	4.679444	1.814291	2.830000	0.191416	0.136449	60.283931
50.334221	0.002817	0.378498	0.378509	87.898445	22.133659	0.621169	103.417286	103.417286	103.417286	4.706457	2.087656	2.830000	0.179011	0.127860	60.348647
51.059262	0.002989	0.385658	0.385670	88.219288	23.757575	0.615972	102.185146	102.185146	102.185146	4.734872	2.405604	2.830000	0.167263	0.119120	60.253240
51.794747	0.003175	0.393025	0.393038	88.542520	25.670456	0.610619	100.927539	100.927539	100.927539	4.764781	2.774421	2.830000	0.156233	0.110243	59.949322
52.540826	0.003377	0.400610	0.400624	88.868223	27.950583	0.605104	99.643571	99.643571	99.643571	4.796281	3.200338	2.830000	0.145989	0.101250	59.369884
53.297652	0.003596	0.408425	0.408441	89.196481	30.704170	0.599423	98.332297	98.332297	98.332297	4.829475	3.688880	2.830000	0.136599	0.092170	58.420047
54.065379	0.003833	0.416482	0.416499	89.527382	34.076353	0.593569	96.992713	96.992713	96.992713	4.864476	4.243882	2.830000	0.128135	0.083049	56.962220
54.844166	0.004092	0.424794	0.424813	89.861013	38.264402	0.587534	95.623752	95.623752	95.623752	4.901406	4.866128	2.830000	0.120674	0.073959	54.792006
55.634170	0.004374	0.433376	0.433398	90.197466	43.526744	0.581314	94.224278	94.224278	94.224278	4.940396	5.551667	2.830000	0.114292	0.065017	51.599379
56.435554	0.004682	0.442244	0.442268	90.536834	50.160591	0.574899	92.793083	92.793083	92.793083	4.981586	6.290071	2.830000	0.109074	0.056419	46.910217
57.248482	0.005019	0.451415	0.451443	90.879212	58.355222	0.568283	91.328876	91.328876	91.328876	5.025130	7.063094	2.830000	0.105104	0.048496	40.019884
58.073119	0.005389	0.460908	0.460939	91.224697	67.675874	0.561458	89.830280	89.830280	89.830280	5.071192	7.844435	2.830000	0.102471	0.041817	30.015364
58.909635	0.005796	0.470744	0.470779	91.573385	75.935656	0.554414	88.295825	88.295825	88.295825	5.119949	8.601321	2.830000	0.101267	0.037268	16.228780
59.758201	0.006244	0.480945	0.480986	91.925376	78.835914	0.547143	86.723935	86.723935	86.723935	5.171593	9.298197	2.830000	0.101586	0.035897	-0.484705
60.618990	0.006738	0.491537	0.491583	92.280767	73.962430	0.539634	85.112924	85.112924	85.112924	5.226332	9.902030	2.830000	0.103525	0.038263	-17.047916
61.492178	0.007286	0.502547	0.502600	92.639656	64.387924	0.531877	83.460984	83.460984	83.460984	5.284387	10.387828	2.830000	0.107185	0.043952	-30.489613
62.377944	0.007894	0.514006	0.514067	93.002140	54.374577	0.523861	81.766173	81.766173	81.766173	5.346001	10.742616	2.830000	0.112667	0.052046	-40.099300
